z[m] p[mb] tp[K] q[g/kg] u[m/s] v[m/s]
      199.250          46      1019.30      day,levels,pres0
-9999.000      1040.00      292.200      11.2000      1.98197     -4.25036
-9999.000      1015.00      292.200      11.2000      1.98197     -4.25036
-9999.000      990.000      292.200      11.2000      3.92696     -7.08442
-9999.000      965.000      292.200      11.2000      3.34427     -5.80123
-9999.000      950.000      292.200      11.2000      3.00582     -5.42264
-9999.000      940.000      292.200      11.2000      3.34568     -5.45558
-9999.000      915.000      292.200      11.2000      4.29842     -4.94477
-9999.000      891.000      292.200      11.2000      6.48200     -8.00460
-9999.000      890.000      298.500      7.94000      6.48200     -8.00460
-9999.000      890.000      299.531      7.94000      6.48200     -8.00460
-9999.000      888.000      299.738      7.93814      6.41907     -7.92689
-9999.000      865.000      302.168      5.77396      7.29738     -7.82549
-9999.000      840.000      304.039      7.28256      8.14787     -8.39627
-9999.000      815.000      305.976      6.04807      9.35426     -10.5065
-9999.000      790.000      307.277      5.66224      10.4783     -9.43474
-9999.000      765.000      308.118      7.24197      10.3030     -8.04961
-9999.000      740.000      309.048      7.00943      11.0481     -8.94655
-9999.000      715.000      310.858      3.13860      11.8312     -9.05626
-9999.000      690.000      312.464      5.53834      12.6983     -9.56886
-9999.000      665.000      313.993      5.48396      13.7315     -7.61151
-9999.000      640.000      316.066      4.03786      11.7139     -8.20214
-9999.000      615.000      317.482      1.81308      12.4242     -9.52104
-9999.000      590.000      319.579     0.815775      14.2428     -9.97293
-9999.000      565.000      321.434     0.440596      14.8956     -8.60000
-9999.000      540.000      322.501      1.61988      14.8233     -7.88167
-9999.000      515.000      324.839      1.09555      15.2924     -7.79186
-9999.000      490.000      325.820      1.20098      15.5147     -9.32219
-9999.000      465.000      327.351     0.597864      17.3192     -9.13381
-9999.000      440.000      328.291     0.491580      16.4484     -5.02879
-9999.000      415.000      328.669     0.589790      14.3191     -4.93047
-9999.000      390.000      331.906    0.0884063      18.5130     -4.27407
-9999.000      365.000      334.202    0.0752400      20.5710     -5.89864
-9999.000      340.000      335.707    0.0515868      27.0197     -2.83989
-9999.000      315.000      337.222    0.0650367      27.2857     -4.81121
-9999.000      290.000      337.827    0.0954940      27.3954     -2.39678
-9999.000      265.000      339.634    0.0539275      26.9101     -2.35433
-9999.000      240.000      341.114    0.0477869      27.7958    -0.485174
-9999.000      215.000      343.432    0.0394785      29.3955    -0.513098
-9999.000      190.000      346.788    0.0140650      25.2384     -1.76484
-9999.000      165.000      351.418   0.00738117      22.5690     -1.18280
-9999.000      140.000      365.216   0.00357824      15.6679     -2.48155
-9999.000      115.000      382.126   0.00253249      10.7235     -2.61240
-9999.000      90.0000      412.567   0.00171142      3.84505     -1.10255
-9999.000      65.0000      463.964   0.00242430     -4.18243     -2.06968
-9999.000      40.0000      549.936   0.00660184     -7.49784      2.14997
-9999.000      15.0000      853.187     0.177730     -22.1178     -5.10631
      199.375          46      1019.30      day,levels,pres0
-9999.000      1040.00      292.200      11.2000      1.98197     -4.25036
-9999.000      1015.00      292.200      11.2000      1.98197     -4.25036
-9999.000      990.000      292.200      11.2000      3.92696     -7.08442
-9999.000      965.000      292.200      11.2000      3.34427     -5.80123
-9999.000      950.000      292.200      11.2000      3.00582     -5.42264
-9999.000      940.000      292.200      11.2000      3.34568     -5.45558
-9999.000      915.000      292.200      11.2000      4.29842     -4.94477
-9999.000      891.000      292.200      11.2000      6.48200     -8.00460
-9999.000      890.000      298.500      7.94000      6.48200     -8.00460
-9999.000      890.000      299.531      7.94000      6.48200     -8.00460
-9999.000      888.000      299.738      7.93814      6.41907     -7.92689
-9999.000      865.000      302.168      5.77396      7.29738     -7.82549
-9999.000      840.000      304.039      7.28256      8.14787     -8.39627
-9999.000      815.000      305.976      6.04807      9.35426     -10.5065
-9999.000      790.000      307.277      5.66224      10.4783     -9.43474
-9999.000      765.000      308.118      7.24197      10.3030     -8.04961
-9999.000      740.000      309.048      7.00943      11.0481     -8.94655
-9999.000      715.000      310.858      3.13860      11.8312     -9.05626
-9999.000      690.000      312.464      5.53834      12.6983     -9.56886
-9999.000      665.000      313.993      5.48396      13.7315     -7.61151
-9999.000      640.000      316.066      4.03786      11.7139     -8.20214
-9999.000      615.000      317.482      1.81308      12.4242     -9.52104
-9999.000      590.000      319.579     0.815775      14.2428     -9.97293
-9999.000      565.000      321.434     0.440596      14.8956     -8.60000
-9999.000      540.000      322.501      1.61988      14.8233     -7.88167
-9999.000      515.000      324.839      1.09555      15.2924     -7.79186
-9999.000      490.000      325.820      1.20098      15.5147     -9.32219
-9999.000      465.000      327.351     0.597864      17.3192     -9.13381
-9999.000      440.000      328.291     0.491580      16.4484     -5.02879
-9999.000      415.000      328.669     0.589790      14.3191     -4.93047
-9999.000      390.000      331.906    0.0884063      18.5130     -4.27407
-9999.000      365.000      334.202    0.0752400      20.5710     -5.89864
-9999.000      340.000      335.707    0.0515868      27.0197     -2.83989
-9999.000      315.000      337.222    0.0650367      27.2857     -4.81121
-9999.000      290.000      337.827    0.0954940      27.3954     -2.39678
-9999.000      265.000      339.634    0.0539275      26.9101     -2.35433
-9999.000      240.000      341.114    0.0477869      27.7958    -0.485174
-9999.000      215.000      343.432    0.0394785      29.3955    -0.513098
-9999.000      190.000      346.788    0.0140650      25.2384     -1.76484
-9999.000      165.000      351.418   0.00738117      22.5690     -1.18280
-9999.000      140.000      365.216   0.00357824      15.6679     -2.48155
-9999.000      115.000      382.126   0.00253249      10.7235     -2.61240
-9999.000      90.0000      412.567   0.00171142      3.84505     -1.10255
-9999.000      65.0000      463.964   0.00242430     -4.18243     -2.06968
-9999.000      40.0000      549.936   0.00660184     -7.49784      2.14997
-9999.000      15.0000      853.187     0.177730     -22.1178     -5.10631
      199.500          46      1019.30      day,levels,pres0
-9999.000      1040.00      292.200      11.2000      1.98197     -4.25036
-9999.000      1015.00      292.200      11.2000      1.98197     -4.25036
-9999.000      990.000      292.200      11.2000      3.92696     -7.08442
-9999.000      965.000      292.200      11.2000      3.34427     -5.80123
-9999.000      950.000      292.200      11.2000      3.00582     -5.42264
-9999.000      940.000      292.200      11.2000      3.34568     -5.45558
-9999.000      915.000      292.200      11.2000      4.29842     -4.94477
-9999.000      891.000      292.200      11.2000      6.48200     -8.00460
-9999.000      890.000      298.500      7.94000      6.48200     -8.00460
-9999.000      890.000      299.531      7.94000      6.48200     -8.00460
-9999.000      888.000      299.738      7.93814      6.41907     -7.92689
-9999.000      865.000      302.168      5.77396      7.29738     -7.82549
-9999.000      840.000      304.039      7.28256      8.14787     -8.39627
-9999.000      815.000      305.976      6.04807      9.35426     -10.5065
-9999.000      790.000      307.277      5.66224      10.4783     -9.43474
-9999.000      765.000      308.118      7.24197      10.3030     -8.04961
-9999.000      740.000      309.048      7.00943      11.0481     -8.94655
-9999.000      715.000      310.858      3.13860      11.8312     -9.05626
-9999.000      690.000      312.464      5.53834      12.6983     -9.56886
-9999.000      665.000      313.993      5.48396      13.7315     -7.61151
-9999.000      640.000      316.066      4.03786      11.7139     -8.20214
-9999.000      615.000      317.482      1.81308      12.4242     -9.52104
-9999.000      590.000      319.579     0.815775      14.2428     -9.97293
-9999.000      565.000      321.434     0.440596      14.8956     -8.60000
-9999.000      540.000      322.501      1.61988      14.8233     -7.88167
-9999.000      515.000      324.839      1.09555      15.2924     -7.79186
-9999.000      490.000      325.820      1.20098      15.5147     -9.32219
-9999.000      465.000      327.351     0.597864      17.3192     -9.13381
-9999.000      440.000      328.291     0.491580      16.4484     -5.02879
-9999.000      415.000      328.669     0.589790      14.3191     -4.93047
-9999.000      390.000      331.906    0.0884063      18.5130     -4.27407
-9999.000      365.000      334.202    0.0752400      20.5710     -5.89864
-9999.000      340.000      335.707    0.0515868      27.0197     -2.83989
-9999.000      315.000      337.222    0.0650367      27.2857     -4.81121
-9999.000      290.000      337.827    0.0954940      27.3954     -2.39678
-9999.000      265.000      339.634    0.0539275      26.9101     -2.35433
-9999.000      240.000      341.114    0.0477869      27.7958    -0.485174
-9999.000      215.000      343.432    0.0394785      29.3955    -0.513098
-9999.000      190.000      346.788    0.0140650      25.2384     -1.76484
-9999.000      165.000      351.418   0.00738117      22.5690     -1.18280
-9999.000      140.000      365.216   0.00357824      15.6679     -2.48155
-9999.000      115.000      382.126   0.00253249      10.7235     -2.61240
-9999.000      90.0000      412.567   0.00171142      3.84505     -1.10255
-9999.000      65.0000      463.964   0.00242430     -4.18243     -2.06968
-9999.000      40.0000      549.936   0.00660184     -7.49784      2.14997
-9999.000      15.0000      853.187     0.177730     -22.1178     -5.10631
      199.625          46      1019.30      day,levels,pres0
-9999.000      1040.00      292.200      11.2000      1.98197     -4.25036
-9999.000      1015.00      292.200      11.2000      1.98197     -4.25036
-9999.000      990.000      292.200      11.2000      3.92696     -7.08442
-9999.000      965.000      292.200      11.2000      3.34427     -5.80123
-9999.000      950.000      292.200      11.2000      3.00582     -5.42264
-9999.000      940.000      292.200      11.2000      3.34568     -5.45558
-9999.000      915.000      292.200      11.2000      4.29842     -4.94477
-9999.000      891.000      292.200      11.2000      6.48200     -8.00460
-9999.000      890.000      298.500      7.94000      6.48200     -8.00460
-9999.000      890.000      299.531      7.94000      6.48200     -8.00460
-9999.000      888.000      299.738      7.93814      6.41907     -7.92689
-9999.000      865.000      302.168      5.77396      7.29738     -7.82549
-9999.000      840.000      304.039      7.28256      8.14787     -8.39627
-9999.000      815.000      305.976      6.04807      9.35426     -10.5065
-9999.000      790.000      307.277      5.66224      10.4783     -9.43474
-9999.000      765.000      308.118      7.24197      10.3030     -8.04961
-9999.000      740.000      309.048      7.00943      11.0481     -8.94655
-9999.000      715.000      310.858      3.13860      11.8312     -9.05626
-9999.000      690.000      312.464      5.53834      12.6983     -9.56886
-9999.000      665.000      313.993      5.48396      13.7315     -7.61151
-9999.000      640.000      316.066      4.03786      11.7139     -8.20214
-9999.000      615.000      317.482      1.81308      12.4242     -9.52104
-9999.000      590.000      319.579     0.815775      14.2428     -9.97293
-9999.000      565.000      321.434     0.440596      14.8956     -8.60000
-9999.000      540.000      322.501      1.61988      14.8233     -7.88167
-9999.000      515.000      324.839      1.09555      15.2924     -7.79186
-9999.000      490.000      325.820      1.20098      15.5147     -9.32219
-9999.000      465.000      327.351     0.597864      17.3192     -9.13381
-9999.000      440.000      328.291     0.491580      16.4484     -5.02879
-9999.000      415.000      328.669     0.589790      14.3191     -4.93047
-9999.000      390.000      331.906    0.0884063      18.5130     -4.27407
-9999.000      365.000      334.202    0.0752400      20.5710     -5.89864
-9999.000      340.000      335.707    0.0515868      27.0197     -2.83989
-9999.000      315.000      337.222    0.0650367      27.2857     -4.81121
-9999.000      290.000      337.827    0.0954940      27.3954     -2.39678
-9999.000      265.000      339.634    0.0539275      26.9101     -2.35433
-9999.000      240.000      341.114    0.0477869      27.7958    -0.485174
-9999.000      215.000      343.432    0.0394785      29.3955    -0.513098
-9999.000      190.000      346.788    0.0140650      25.2384     -1.76484
-9999.000      165.000      351.418   0.00738117      22.5690     -1.18280
-9999.000      140.000      365.216   0.00357824      15.6679     -2.48155
-9999.000      115.000      382.126   0.00253249      10.7235     -2.61240
-9999.000      90.0000      412.567   0.00171142      3.84505     -1.10255
-9999.000      65.0000      463.964   0.00242430     -4.18243     -2.06968
-9999.000      40.0000      549.936   0.00660184     -7.49784      2.14997
-9999.000      15.0000      853.187     0.177730     -22.1178     -5.10631
